Data from HR4C34221__6__15-14-53-316.txt Node

Date: Fri Apr 07 15:14:53 MSK 2023
User: 123
Spectrometer: HR4C3422
Trigger mode: 4
Integration Time (sec): 5,000000E-3
Scans to average: 1
Electric dark correction enabled: true
Nonlinearity correction enabled: false
Boxcar width: 0
XAxis mode: Wavelengths
Number of Pixels in Spectrum: 3648
>>>>>Begin Spectral Data<<<<<
195,326	-51,46
195,597	-51,46
195,868	-51,46
196,139	-13,46
196,409	8,54
196,68	6,54
196,951	3,54
197,221	4,54
197,492	-3,46
197,762	2,54
198,033	-7,46
198,304	-8,46
198,574	-2,46
198,845	-3,46
199,116	-1,46
199,386	2,54
199,657	9,54
199,927	-2,46
200,198	8,54
200,468	3,54
200,739	-8,46
201,009	-8,46
201,28	11,54
201,551	-6,46
201,821	-0,46
202,092	0,54
202,362	-2,46
202,633	11,54
202,903	-2,46
203,174	-7,46
203,444	-9,46
203,714	-8,46
203,985	-6,46
204,255	-0,46
204,526	-9,46
204,796	5,54
205,067	-1,46
205,337	-2,46
205,607	-7,46
205,878	-0,46
206,148	7,54
206,419	-8,46
206,689	5,54
206,959	1,54
207,23	-12,46
207,5	-5,46
207,77	7,54
208,041	-3,46
208,311	3,54
208,581	-0,46
208,852	-9,46
209,122	-8,46
209,392	6,54
209,663	-4,46
209,933	-0,46
210,203	10,54
210,473	6,54
210,744	5,54
211,014	2,54
211,284	-6,46
211,554	6,54
211,825	-9,46
212,095	-4,46
212,365	1,54
212,635	9,54
212,905	3,54
213,176	-6,46
213,446	4,54
213,716	2,54
213,986	0,54
214,256	-9,46
214,526	-11,46
214,797	8,54
215,067	0,54
215,337	-5,46
215,607	-18,46
215,877	-5,46
216,147	-8,46
216,417	-0,46
216,687	-6,46
216,957	-15,46
217,227	0,54
217,497	2,54
217,767	-4,46
218,038	-1,46
218,308	0,54
218,578	11,54
218,848	6,54
219,118	-3,46
219,388	8,54
219,658	-3,46
219,928	-1,46
220,198	-11,46
220,468	9,54
220,737	-10,46
221,007	5,54
221,277	-1,46
221,547	6,54
221,817	2,54
222,087	-0,46
222,357	7,54
222,627	-11,46
222,897	6,54
223,167	-7,46
223,437	15,54
223,707	2,54
223,976	3,54
224,246	5,54
224,516	-3,46
224,786	3,54
225,056	-0,46
225,326	2,54
225,595	10,54
225,865	3,54
226,135	-13,46
226,405	-1,46
226,675	-7,46
226,944	-2,46
227,214	4,54
227,484	-4,46
227,754	-12,46
228,023	-16,46
228,293	-4,46
228,563	-1,46
228,833	6,54
229,102	6,54
229,372	-8,46
229,642	-11,46
229,911	-11,46
230,181	11,54
230,451	-0,46
230,72	-6,46
230,99	-7,46
231,26	2,54
231,529	-2,46
231,799	-12,46
232,069	3,54
232,338	-5,46
232,608	-3,46
232,877	-0,46
233,147	-2,46
233,417	-4,46
233,686	10,54
233,956	-4,46
234,225	-8,46
234,495	-4,46
234,764	-15,46
235,034	-9,46
235,304	-2,46
235,573	-8,46
235,843	2,54
236,112	0,54
236,382	-2,46
236,651	-2,46
236,921	-8,46
237,19	13,54
237,46	-0,46
237,729	-5,46
237,998	6,54
238,268	-2,46
238,537	1,54
238,807	2,54
239,076	-12,46
239,346	-7,46
239,615	-7,46
239,884	1,54
240,154	6,54
240,423	-8,46
240,693	-5,46
240,962	1,54
241,231	0,54
241,501	3,54
241,77	-5,46
242,039	-1,46
242,309	-4,46
242,578	1,54
242,847	3,54
243,116	-1,46
243,386	3,54
243,655	2,54
243,924	-7,46
244,194	0,54
244,463	6,54
244,732	15,54
245,001	0,54
245,271	-3,46
245,54	2,54
245,809	-6,46
246,078	-2,46
246,347	-8,46
246,617	4,54
246,886	-0,46
247,155	6,54
247,424	-14,46
247,693	-14,46
247,963	-3,46
248,232	-15,46
248,501	3,54
248,77	-7,46
249,039	4,54
249,308	4,54
249,577	-8,46
249,846	4,54
250,115	-7,46
250,385	9,54
250,654	-12,46
250,923	6,54
251,192	7,54
251,461	-5,46
251,73	-1,46
251,999	-11,46
252,268	-8,46
252,537	-17,46
252,806	-19,46
253,075	-8,46
253,344	-13,46
253,613	-5,46
253,882	-16,46
254,151	-5,46
254,42	-0,46
254,689	3,54
254,958	-3,46
255,227	-7,46
255,496	5,54
255,765	-13,46
256,033	2,54
256,302	-3,46
256,571	-4,46
256,84	-1,46
257,109	2,54
257,378	-5,46
257,647	4,54
257,916	-0,46
258,184	-20,46
258,453	-7,46
258,722	-8,46
258,991	-0,46
259,26	-3,46
259,529	-8,46
259,797	-23,46
260,066	-9,46
260,335	-2,46
260,604	-2,46
260,873	-22,46
261,141	-9,46
261,41	-4,46
261,679	5,54
261,948	-4,46
262,216	-5,46
262,485	-15,46
262,754	-0,46
263,022	-4,46
263,291	-10,46
263,56	-3,46
263,829	-7,46
264,097	-8,46
264,366	0,54
264,635	4,54
264,903	5,54
265,172	-5,46
265,44	-4,46
265,709	-8,46
265,978	-2,46
266,246	6,54
266,515	0,54
266,784	1,54
267,052	-10,46
267,321	-4,46
267,589	-0,46
267,858	-1,46
268,126	-1,46
268,395	-0,46
268,663	-4,46
268,932	-3,46
269,201	-9,46
269,469	-10,46
269,738	-20,46
270,006	-10,46
270,275	-3,46
270,543	-10,46
270,811	-6,46
271,08	-14,46
271,348	-2,46
271,617	0,54
271,885	1,54
272,154	3,54
272,422	4,54
272,691	-5,46
272,959	6,54
273,227	-6,46
273,496	6,54
273,764	1,54
274,033	1,54
274,301	-0,46
274,569	-16,46
274,838	-3,46
275,106	-1,46
275,374	-0,46
275,643	-7,46
275,911	-11,46
276,179	-2,46
276,448	-12,46
276,716	2,54
276,984	9,54
277,252	0,54
277,521	-6,46
277,789	-12,46
278,057	-5,46
278,325	-5,46
278,594	-11,46
278,862	-8,46
279,13	-11,46
279,398	-8,46
279,667	-10,46
279,935	-4,46
280,203	-2,46
280,471	-3,46
280,739	-1,46
281,008	-2,46
281,276	-15,46
281,544	-12,46
281,812	-9,46
282,08	-5,46
282,348	-12,46
282,616	-3,46
282,884	-9,46
283,153	-3,46
283,421	3,54
283,689	2,54
283,957	-16,46
284,225	-4,46
284,493	-3,46
284,761	10,54
285,029	6,54
285,297	4,54
285,565	-3,46
285,833	-7,46
286,101	-3,46
286,369	-7,46
286,637	-11,46
286,905	-2,46
287,173	0,54
287,441	-3,46
287,709	-6,46
287,977	-3,46
288,245	-2,46
288,513	12,54
288,781	-4,46
289,049	-11,46
289,317	1,54
289,585	-7,46
289,853	10,54
290,12	-7,46
290,388	3,54
290,656	6,54
290,924	-19,46
291,192	-1,46
291,46	-2,46
291,728	6,54
291,996	-9,46
292,263	2,54
292,531	1,54
292,799	-0,46
293,067	-3,46
293,335	-8,46
293,602	-1,46
293,87	-14,46
294,138	-4,46
294,406	-0,46
294,673	-12,46
294,941	-7,46
295,209	-3,46
295,477	-1,46
295,744	-2,46
296,012	-1,46
296,28	-0,46
296,548	-11,46
296,815	1,54
297,083	-8,46
297,351	3,54
297,618	9,54
297,886	-9,46
298,154	-1,46
298,421	-10,46
298,689	-4,46
298,956	-14,46
299,224	-13,46
299,492	6,54
299,759	-10,46
300,027	-2,46
300,294	-4,46
300,562	-7,46
300,83	-10,46
301,097	-14,46
301,365	-7,46
301,632	-5,46
301,9	-6,46
302,167	-2,46
302,435	4,54
302,702	-1,46
302,97	13,54
303,237	0,54
303,505	0,54
303,772	-2,46
304,04	-1,46
304,307	1,54
304,575	-10,46
304,842	-7,46
305,11	3,54
305,377	0,54
305,645	6,54
305,912	4,54
306,179	-7,46
306,447	-5,46
306,714	-6,46
306,982	2,54
307,249	-2,46
307,516	7,54
307,784	-4,46
308,051	-13,46
308,318	-11,46
308,586	-7,46
308,853	7,54
309,12	1,54
309,388	-7,46
309,655	-4,46
309,922	-14,46
310,19	-6,46
310,457	-12,46
310,724	4,54
310,991	10,54
311,259	7,54
311,526	5,54
311,793	2,54
312,06	-2,46
312,328	-7,46
312,595	-33,46
312,862	2,54
313,129	-5,46
313,396	8,54
313,664	8,54
313,931	5,54
314,198	5,54
314,465	-3,46
314,732	-18,46
314,999	-6,46
315,266	4,54
315,534	-10,46
315,801	-9,46
316,068	-1,46
316,335	8,54
316,602	-8,46
316,869	-5,46
317,136	-1,46
317,403	13,54
317,67	5,54
317,937	-6,46
318,204	-8,46
318,471	6,54
318,738	-2,46
319,005	10,54
319,272	1,54
319,539	0,54
319,806	-4,46
320,073	-2,46
320,34	-2,46
320,607	-9,46
320,874	-0,46
321,141	-3,46
321,408	-5,46
321,675	-0,46
321,942	-5,46
322,209	-6,46
322,476	-11,46
322,743	-7,46
323,01	-11,46
323,277	-3,46
323,544	-9,46
323,81	7,54
324,077	-2,46
324,344	-2,46
324,611	0,54
324,878	-2,46
325,145	-15,46
325,412	4,54
325,678	5,54
325,945	-2,46
326,212	-0,46
326,479	4,54
326,746	2,54
327,012	1,54
327,279	-11,46
327,546	-1,46
327,813	-4,46
328,079	-12,46
328,346	5,54
328,613	-5,46
328,88	4,54
329,146	-3,46
329,413	-4,46
329,68	-3,46
329,946	14,54
330,213	-12,46
330,48	-10,46
330,746	-3,46
331,013	4,54
331,28	-3,46
331,546	-6,46
331,813	-15,46
332,08	-6,46
332,346	-9,46
332,613	9,54
332,879	-1,46
333,146	-5,46
333,413	-9,46
333,679	1,54
333,946	-16,46
334,212	-6,46
334,479	-5,46
334,745	1,54
335,012	4,54
335,278	-10,46
335,545	-6,46
335,811	-5,46
336,078	-0,46
336,344	1,54
336,611	-7,46
336,877	0,54
337,144	8,54
337,41	9,54
337,677	-2,46
337,943	-20,46
338,21	-0,46
338,476	-5,46
338,742	-1,46
339,009	-8,46
339,275	-12,46
339,542	-5,46
339,808	-13,46
340,074	-3,46
340,341	10,54
340,607	-7,46
340,873	-7,46
341,14	-7,46
341,406	-1,46
341,672	-4,46
341,939	2,54
342,205	-1,46
342,471	13,54
342,738	-0,46
343,004	7,54
343,27	5,54
343,537	-10,46
343,803	-2,46
344,069	-1,46
344,335	10,54
344,602	4,54
344,868	-5,46
345,134	-2,46
345,4	8,54
345,666	-10,46
345,933	11,54
346,199	7,54
346,465	1,54
346,731	0,54
346,997	-0,46
347,263	5,54
347,53	2,54
347,796	2,54
348,062	-4,46
348,328	4,54
348,594	13,54
348,86	3,54
349,126	0,54
349,392	2,54
349,659	-5,46
349,925	7,54
350,191	5,54
350,457	3,54
350,723	-5,46
350,989	-11,46
351,255	-7,46
351,521	-8,46
351,787	-9,46
352,053	-3,46
352,319	4,54
352,585	0,54
352,851	-1,46
353,117	5,54
353,383	6,54
353,649	-5,46
353,915	0,54
354,181	6,54
354,447	-4,46
354,713	-4,46
354,978	13,54
355,244	-3,46
355,51	-7,46
355,776	-6,46
356,042	-2,46
356,308	-1,46
356,574	-4,46
356,84	-6,46
357,106	-11,46
357,371	-6,46
357,637	10,54
357,903	5,54
358,169	1,54
358,435	-4,46
358,701	-9,46
358,966	10,54
359,232	-1,46
359,498	-8,46
359,764	-10,46
360,029	-4,46
360,295	-3,46
360,561	2,54
360,827	-1,46
361,092	-5,46
361,358	-1,46
361,624	-4,46
361,89	13,54
362,155	-5,46
362,421	5,54
362,687	5,54
362,952	0,54
363,218	8,54
363,484	8,54
363,749	-2,46
364,015	13,54
364,281	0,54
364,546	-13,46
364,812	11,54
365,077	-2,46
365,343	5,54
365,609	3,54
365,874	-9,46
366,14	6,54
366,405	4,54
366,671	-15,46
366,936	-9,46
367,202	-19,46
367,467	9,54
367,733	8,54
367,999	-9,46
368,264	-5,46
368,53	-5,46
368,795	-1,46
369,061	-2,46
369,326	-14,46
369,591	-10,46
369,857	-1,46
370,122	-6,46
370,388	-5,46
370,653	-5,46
370,919	-7,46
371,184	-6,46
371,45	-5,46
371,715	-0,46
371,98	0,54
372,246	9,54
372,511	3,54
372,776	4,54
373,042	-11,46
373,307	0,54
373,573	-2,46
373,838	4,54
374,103	-2,46
374,369	-2,46
374,634	-0,46
374,899	-4,46
375,164	3,54
375,43	-13,46
375,695	-4,46
375,96	-4,46
376,226	-16,46
376,491	1,54
376,756	-1,46
377,021	5,54
377,286	2,54
377,552	-3,46
377,817	0,54
378,082	-9,46
378,347	-2,46
378,613	3,54
378,878	7,54
379,143	0,54
379,408	0,54
379,673	-12,46
379,938	-8,46
380,203	-15,46
380,469	2,54
380,734	5,54
380,999	0,54
381,264	-6,46
381,529	-6,46
381,794	-5,46
382,059	-2,46
382,324	6,54
382,589	10,54
382,854	3,54
383,119	-6,46
383,385	-8,46
383,65	3,54
383,915	-13,46
384,18	1,54
384,445	-7,46
384,71	-6,46
384,975	-8,46
385,24	0,54
385,505	-9,46
385,77	-19,46
386,034	-2,46
386,299	-5,46
386,564	-1,46
386,829	-1,46
387,094	4,54
387,359	-1,46
387,624	2,54
387,889	1,54
388,154	-4,46
388,419	8,54
388,684	-5,46
388,949	-15,46
389,213	-5,46
389,478	0,54
389,743	-6,46
390,008	-3,46
390,273	6,54
390,538	-5,46
390,802	-5,46
391,067	-3,46
391,332	-2,46
391,597	-0,46
391,862	-13,46
392,126	-1,46
392,391	5,54
392,656	10,54
392,921	-4,46
393,185	4,54
393,45	-0,46
393,715	-8,46
393,979	-12,46
394,244	1,54
394,509	1,54
394,774	3,54
395,038	-3,46
395,303	-6,46
395,568	-3,46
395,832	-9,46
396,097	8,54
396,361	7,54
396,626	1,54
396,891	2,54
397,155	0,54
397,42	6,54
397,685	-11,46
397,949	-1,46
398,214	-13,46
398,478	2,54
398,743	0,54
399,007	-11,46
399,272	-5,46
399,536	8,54
399,801	-0,46
400,066	5,54
400,33	7,54
400,595	-0,46
400,859	3,54
401,124	7,54
401,388	0,54
401,652	12,54
401,917	-6,46
402,181	-1,46
402,446	9,54
402,71	2,54
402,975	-0,46
403,239	-15,46
403,504	-5,46
403,768	-1,46
404,032	-6,46
404,297	0,54
404,561	-6,46
404,826	-1,46
405,09	2,54
405,354	-5,46
405,619	-3,46
405,883	-4,46
406,147	-10,46
406,412	-4,46
406,676	-0,46
406,94	-2,46
407,205	3,54
407,469	-7,46
407,733	-3,46
407,997	-10,46
408,262	-5,46
408,526	3,54
408,79	-1,46
409,054	-2,46
409,319	2,54
409,583	6,54
409,847	4,54
410,111	-18,46
410,375	-3,46
410,64	11,54
410,904	-7,46
411,168	-2,46
411,432	1,54
411,696	-22,46
411,96	-9,46
412,225	3,54
412,489	19,54
412,753	-3,46
413,017	4,54
413,281	7,54
413,545	-7,46
413,809	4,54
414,073	3,54
414,337	4,54
414,602	2,54
414,866	3,54
415,13	4,54
415,394	-3,46
415,658	4,54
415,922	10,54
416,186	-1,46
416,45	2,54
416,714	-4,46
416,978	8,54
417,242	9,54
417,506	2,54
417,77	6,54
418,034	-0,46
418,298	8,54
418,562	4,54
418,825	13,54
419,089	1,54
419,353	4,54
419,617	-6,46
419,881	5,54
420,145	8,54
420,409	5,54
420,673	-5,46
420,937	10,54
421,2	6,54
421,464	13,54
421,728	15,54
421,992	27,54
422,256	23,54
422,52	14,54
422,783	2,54
423,047	4,54
423,311	14,54
423,575	21,54
423,839	20,54
424,102	21,54
424,366	27,54
424,63	23,54
424,894	-1,46
425,157	19,54
425,421	24,54
425,685	33,54
425,949	27,54
426,212	40,54
426,476	22,54
426,74	27,54
427,003	26,54
427,267	22,54
427,531	31,54
427,794	38,54
428,058	24,54
428,322	44,54
428,585	30,54
428,849	31,54
429,112	43,54
429,376	39,54
429,64	43,54
429,903	39,54
430,167	55,54
430,43	59,54
430,694	46,54
430,957	51,54
431,221	63,54
431,485	69,54
431,748	59,54
432,012	54,54
432,275	67,54
432,539	84,54
432,802	95,54
433,066	84,54
433,329	72,54
433,593	83,54
433,856	92,54
434,119	88,54
434,383	107,54
434,646	100,54
434,91	100,54
435,173	110,54
435,437	122,54
435,7	113,54
435,963	121,54
436,227	120,54
436,49	134,54
436,753	117,54
437,017	137,54
437,28	148,54
437,544	150,54
437,807	155,54
438,07	148,54
438,334	171,54
438,597	173,54
438,86	188,54
439,123	182,54
439,387	189,54
439,65	187,54
439,913	201,54
440,177	207,54
440,44	214,54
440,703	223,54
440,966	231,54
441,229	233,54
441,493	246,54
441,756	260,54
442,019	265,54
442,282	266,54
442,545	275,54
442,809	283,54
443,072	301,54
443,335	286,54
443,598	296,54
443,861	328,54
444,124	332,54
444,388	345,54
444,651	371,54
444,914	365,54
445,177	409,54
445,44	384,54
445,703	407,54
445,966	414,54
446,229	446,54
446,492	450,54
446,755	467,54
447,018	484,54
447,281	509,54
447,544	526,54
447,807	534,54
448,07	555,54
448,333	555,54
448,596	577,54
448,859	623,54
449,122	640,54
449,385	647,54
449,648	668,54
449,911	675,54
450,174	723,54
450,437	729,54
450,7	740,54
450,963	771,54
451,226	792,54
451,489	805,54
451,752	863,54
452,015	841,54
452,277	860,54
452,54	888,54
452,803	877,54
453,066	896,54
453,329	915,54
453,592	952,54
453,855	950,54
454,117	984,54
454,38	982,54
454,643	995,54
454,906	983,54
455,169	950,54
455,431	994,54
455,694	977,54
455,957	986,54
456,22	1008,54
456,482	956,54
456,745	978,54
457,008	1015,54
457,271	988,54
457,533	980,54
457,796	970,54
458,059	937,54
458,321	907,54
458,584	918,54
458,847	918,54
459,109	872,54
459,372	923,54
459,635	859,54
459,897	866,54
460,16	867,54
460,423	822,54
460,685	784,54
460,948	777,54
461,21	785,54
461,473	788,54
461,735	752,54
461,998	720,54
462,261	690,54
462,523	700,54
462,786	680,54
463,048	676,54
463,311	642,54
463,573	657,54
463,836	656,54
464,098	586,54
464,361	583,54
464,623	583,54
464,886	573,54
465,148	572,54
465,411	583,54
465,673	568,54
465,936	569,54
466,198	552,54
466,46	547,54
466,723	528,54
466,985	503,54
467,248	552,54
467,51	535,54
467,772	510,54
468,035	515,54
468,297	502,54
468,56	504,54
468,822	494,54
469,084	486,54
469,347	471,54
469,609	487,54
469,871	499,54
470,133	495,54
470,396	454,54
470,658	472,54
470,92	482,54
471,183	497,54
471,445	494,54
471,707	464,54
471,969	485,54
472,232	460,54
472,494	461,54
472,756	479,54
473,018	478,54
473,281	473,54
473,543	433,54
473,805	430,54
474,067	440,54
474,329	440,54
474,591	436,54
474,854	441,54
475,116	441,54
475,378	429,54
475,64	435,54
475,902	429,54
476,164	411,54
476,426	424,54
476,688	408,54
476,951	400,54
477,213	380,54
477,475	382,54
477,737	367,54
477,999	394,54
478,261	391,54
478,523	361,54
478,785	376,54
479,047	355,54
479,309	378,54
479,571	355,54
479,833	342,54
480,095	355,54
480,357	350,54
480,619	343,54
480,881	337,54
481,143	340,54
481,405	336,54
481,667	329,54
481,929	348,54
482,191	319,54
482,452	317,54
482,714	327,54
482,976	317,54
483,238	330,54
483,5	322,54
483,762	304,54
484,024	301,54
484,286	323,54
484,547	319,54
484,809	317,54
485,071	313,54
485,333	340,54
485,595	296,54
485,857	296,54
486,118	321,54
486,38	305,54
486,642	291,54
486,904	294,54
487,165	322,54
487,427	328,54
487,689	333,54
487,951	338,54
488,212	309,54
488,474	303,54
488,736	307,54
488,998	298,54
489,259	326,54
489,521	315,54
489,783	310,54
490,044	312,54
490,306	318,54
490,568	314,54
490,829	295,54
491,091	307,54
491,353	334,54
491,614	319,54
491,876	325,54
492,137	300,54
492,399	321,54
492,661	310,54
492,922	318,54
493,184	312,54
493,445	322,54
493,707	332,54
493,968	330,54
494,23	334,54
494,491	335,54
494,753	309,54
495,014	315,54
495,276	339,54
495,537	327,54
495,799	308,54
496,06	329,54
496,322	333,54
496,583	337,54
496,845	329,54
497,106	327,54
497,368	333,54
497,629	329,54
497,89	336,54
498,152	362,54
498,413	341,54
498,675	354,54
498,936	343,54
499,197	361,54
499,459	357,54
499,72	342,54
499,981	362,54
500,243	369,54
500,504	367,54
500,765	360,54
501,027	361,54
501,288	389,54
501,549	384,54
501,811	414,54
502,072	388,54
502,333	401,54
502,594	398,54
502,856	395,54
503,117	417,54
503,378	395,54
503,639	429,54
503,901	405,54
504,162	437,54
504,423	409,54
504,684	427,54
504,945	440,54
505,207	452,54
505,468	466,54
505,729	470,54
505,99	463,54
506,251	435,54
506,512	484,54
506,774	478,54
507,035	454,54
507,296	483,54
507,557	456,54
507,818	463,54
508,079	494,54
508,34	477,54
508,601	513,54
508,862	508,54
509,123	497,54
509,384	491,54
509,645	536,54
509,906	524,54
510,167	528,54
510,428	527,54
510,689	535,54
510,95	542,54
511,211	566,54
511,472	542,54
511,733	538,54
511,994	557,54
512,255	572,54
512,516	591,54
512,777	589,54
513,038	582,54
513,299	592,54
513,56	600,54
513,821	607,54
514,082	619,54
514,343	608,54
514,603	597,54
514,864	600,54
515,125	602,54
515,386	638,54
515,647	622,54
515,908	657,54
516,169	653,54
516,429	662,54
516,69	662,54
516,951	650,54
517,212	659,54
517,473	642,54
517,733	668,54
517,994	691,54
518,255	694,54
518,516	679,54
518,776	688,54
519,037	675,54
519,298	690,54
519,559	702,54
519,819	707,54
520,08	716,54
520,341	703,54
520,601	704,54
520,862	719,54
521,123	703,54
521,383	738,54
521,644	739,54
521,905	739,54
522,165	719,54
522,426	748,54
522,686	739,54
522,947	735,54
523,208	743,54
523,468	720,54
523,729	745,54
523,989	759,54
524,25	749,54
524,51	770,54
524,771	758,54
525,032	762,54
525,292	768,54
525,553	765,54
525,813	773,54
526,074	796,54
526,334	808,54
526,595	786,54
526,855	764,54
527,116	803,54
527,376	786,54
527,636	783,54
527,897	774,54
528,157	786,54
528,418	784,54
528,678	796,54
528,939	787,54
529,199	799,54
529,459	791,54
529,72	810,54
529,98	797,54
530,24	772,54
530,501	794,54
530,761	810,54
531,022	798,54
531,282	820,54
531,542	809,54
531,803	807,54
532,063	830,54
532,323	811,54
532,583	804,54
532,844	834,54
533,104	831,54
533,364	823,54
533,624	824,54
533,885	815,54
534,145	838,54
534,405	844,54
534,665	829,54
534,926	853,54
535,186	835,54
535,446	814,54
535,706	835,54
535,966	827,54
536,227	815,54
536,487	828,54
536,747	827,54
537,007	831,54
537,267	842,54
537,527	845,54
537,787	839,54
538,048	827,54
538,308	854,54
538,568	823,54
538,828	832,54
539,088	851,54
539,348	833,54
539,608	834,54
539,868	869,54
540,128	848,54
540,388	818,54
540,648	820,54
540,908	839,54
541,168	827,54
541,428	850,54
541,688	834,54
541,948	855,54
542,208	830,54
542,468	824,54
542,728	820,54
542,988	842,54
543,248	839,54
543,508	839,54
543,768	815,54
544,028	846,54
544,288	827,54
544,548	846,54
544,807	829,54
545,067	844,54
545,327	852,54
545,587	852,54
545,847	817,54
546,107	834,54
546,367	847,54
546,626	836,54
546,886	856,54
547,146	838,54
547,406	857,54
547,666	857,54
547,925	837,54
548,185	875,54
548,445	857,54
548,705	839,54
548,965	848,54
549,224	846,54
549,484	834,54
549,744	823,54
550,003	831,54
550,263	843,54
550,523	816,54
550,783	823,54
551,042	800,54
551,302	818,54
551,562	822,54
551,821	821,54
552,081	835,54
552,341	843,54
552,6	848,54
552,86	818,54
553,119	814,54
553,379	808,54
553,639	810,54
553,898	835,54
554,158	820,54
554,417	805,54
554,677	820,54
554,936	813,54
555,196	836,54
555,456	809,54
555,715	820,54
555,975	820,54
556,234	806,54
556,494	821,54
556,753	808,54
557,013	829,54
557,272	830,54
557,532	819,54
557,791	809,54
558,051	825,54
558,31	806,54
558,569	838,54
558,829	803,54
559,088	803,54
559,348	810,54
559,607	842,54
559,866	850,54
560,126	832,54
560,385	835,54
560,645	817,54
560,904	806,54
561,163	816,54
561,423	814,54
561,682	834,54
561,941	827,54
562,201	836,54
562,46	805,54
562,719	800,54
562,979	792,54
563,238	807,54
563,497	822,54
563,756	808,54
564,016	831,54
564,275	817,54
564,534	800,54
564,793	811,54
565,053	847,54
565,312	829,54
565,571	800,54
565,83	762,54
566,089	800,54
566,349	802,54
566,608	813,54
566,867	804,54
567,126	810,54
567,385	802,54
567,644	783,54
567,903	804,54
568,163	803,54
568,422	797,54
568,681	796,54
568,94	798,54
569,199	769,54
569,458	779,54
569,717	782,54
569,976	798,54
570,235	753,54
570,494	779,54
570,753	756,54
571,012	794,54
571,271	803,54
571,53	763,54
571,789	779,54
572,048	772,54
572,307	767,54
572,566	760,54
572,825	759,54
573,084	784,54
573,343	777,54
573,602	762,54
573,861	754,54
574,12	751,54
574,379	765,54
574,638	760,54
574,897	738,54
575,156	771,54
575,414	766,54
575,673	754,54
575,932	747,54
576,191	737,54
576,45	765,54
576,709	791,54
576,968	751,54
577,226	743,54
577,485	735,54
577,744	741,54
578,003	742,54
578,262	745,54
578,52	750,54
578,779	742,54
579,038	741,54
579,297	723,54
579,555	726,54
579,814	745,54
580,073	717,54
580,332	736,54
580,59	731,54
580,849	748,54
581,108	724,54
581,366	723,54
581,625	726,54
581,884	707,54
582,142	715,54
582,401	732,54
582,66	702,54
582,918	707,54
583,177	702,54
583,436	726,54
583,694	704,54
583,953	716,54
584,211	710,54
584,47	694,54
584,728	685,54
584,987	711,54
585,246	692,54
585,504	701,54
585,763	694,54
586,021	673,54
586,28	698,54
586,538	676,54
586,797	677,54
587,055	678,54
587,314	681,54
587,572	666,54
587,831	688,54
588,089	665,54
588,348	677,54
588,606	655,54
588,864	668,54
589,123	668,54
589,381	665,54
589,64	656,54
589,898	653,54
590,157	676,54
590,415	682,54
590,673	646,54
590,932	639,54
591,19	641,54
591,448	663,54
591,707	631,54
591,965	596,54
592,223	616,54
592,482	616,54
592,74	622,54
592,998	643,54
593,257	640,54
593,515	617,54
593,773	638,54
594,031	617,54
594,29	610,54
594,548	616,54
594,806	636,54
595,064	605,54
595,323	602,54
595,581	581,54
595,839	625,54
596,097	612,54
596,355	618,54
596,613	621,54
596,872	592,54
597,13	606,54
597,388	576,54
597,646	594,54
597,904	570,54
598,162	574,54
598,42	582,54
598,679	572,54
598,937	594,54
599,195	575,54
599,453	576,54
599,711	544,54
599,969	539,54
600,227	569,54
600,485	568,54
600,743	574,54
601,001	558,54
601,259	549,54
601,517	534,54
601,775	564,54
602,033	549,54
602,291	535,54
602,549	526,54
602,807	529,54
603,065	541,54
603,323	542,54
603,581	540,54
603,839	557,54
604,097	528,54
604,355	542,54
604,613	538,54
604,871	520,54
605,128	527,54
605,386	531,54
605,644	515,54
605,902	494,54
606,16	495,54
606,418	512,54
606,676	506,54
606,933	504,54
607,191	507,54
607,449	504,54
607,707	491,54
607,965	500,54
608,223	486,54
608,48	480,54
608,738	475,54
608,996	482,54
609,254	485,54
609,511	466,54
609,769	502,54
610,027	483,54
610,285	483,54
610,542	473,54
610,8	483,54
611,058	452,54
611,315	473,54
611,573	485,54
611,831	475,54
612,088	458,54
612,346	452,54
612,604	467,54
612,861	451,54
613,119	459,54
613,376	446,54
613,634	461,54
613,892	438,54
614,149	440,54
614,407	458,54
614,664	461,54
614,922	445,54
615,18	456,54
615,437	422,54
615,695	431,54
615,952	425,54
616,21	442,54
616,467	438,54
616,725	436,54
616,982	437,54
617,24	436,54
617,497	429,54
617,755	438,54
618,012	420,54
618,27	404,54
618,527	396,54
618,784	422,54
619,042	411,54
619,299	402,54
619,557	399,54
619,814	400,54
620,071	401,54
620,329	398,54
620,586	392,54
620,844	377,54
621,101	401,54
621,358	376,54
621,616	392,54
621,873	413,54
622,13	393,54
622,388	379,54
622,645	400,54
622,902	386,54
623,159	367,54
623,417	376,54
623,674	376,54
623,931	372,54
624,188	377,54
624,446	353,54
624,703	351,54
624,96	367,54
625,217	379,54
625,475	372,54
625,732	355,54
625,989	368,54
626,246	366,54
626,503	363,54
626,761	354,54
627,018	343,54
627,275	354,54
627,532	352,54
627,789	340,54
628,046	335,54
628,303	344,54
628,56	324,54
628,818	330,54
629,075	335,54
629,332	329,54
629,589	345,54
629,846	329,54
630,103	304,54
630,36	340,54
630,617	330,54
630,874	326,54
631,131	323,54
631,388	308,54
631,645	313,54
631,902	314,54
632,159	315,54
632,416	333,54
632,673	314,54
632,93	322,54
633,187	300,54
633,444	314,54
633,701	317,54
633,958	293,54
634,215	307,54
634,471	295,54
634,728	304,54
634,985	314,54
635,242	287,54
635,499	294,54
635,756	285,54
636,013	285,54
636,27	281,54
636,526	291,54
636,783	277,54
637,04	290,54
637,297	287,54
637,554	278,54
637,81	269,54
638,067	291,54
638,324	284,54
638,581	278,54
638,838	253,54
639,094	276,54
639,351	253,54
639,608	269,54
639,864	270,54
640,121	286,54
640,378	261,54
640,635	247,54
640,891	251,54
641,148	263,54
641,405	256,54
641,661	258,54
641,918	252,54
642,175	253,54
642,431	242,54
642,688	258,54
642,944	248,54
643,201	247,54
643,458	244,54
643,714	239,54
643,971	235,54
644,227	241,54
644,484	226,54
644,741	238,54
644,997	222,54
645,254	214,54
645,51	223,54
645,767	235,54
646,023	223,54
646,28	222,54
646,536	199,54
646,793	221,54
647,049	217,54
647,306	202,54
647,562	219,54
647,819	216,54
648,075	215,54
648,331	212,54
648,588	213,54
648,844	198,54
649,101	201,54
649,357	218,54
649,613	196,54
649,87	192,54
650,126	210,54
650,383	197,54
650,639	199,54
650,895	198,54
651,152	198,54
651,408	191,54
651,664	189,54
651,921	190,54
652,177	194,54
652,433	201,54
652,689	184,54
652,946	192,54
653,202	204,54
653,458	182,54
653,715	181,54
653,971	184,54
654,227	184,54
654,483	153,54
654,739	177,54
654,996	184,54
655,252	170,54
655,508	161,54
655,764	179,54
656,02	174,54
656,277	161,54
656,533	158,54
656,789	164,54
657,045	170,54
657,301	160,54
657,557	167,54
657,813	167,54
658,07	155,54
658,326	150,54
658,582	149,54
658,838	156,54
659,094	161,54
659,35	162,54
659,606	158,54
659,862	165,54
660,118	144,54
660,374	150,54
660,63	144,54
660,886	139,54
661,142	143,54
661,398	145,54
661,654	146,54
661,91	131,54
662,166	135,54
662,422	130,54
662,678	147,54
662,934	147,54
663,19	115,54
663,446	122,54
663,702	137,54
663,957	134,54
664,213	130,54
664,469	127,54
664,725	125,54
664,981	129,54
665,237	124,54
665,493	136,54
665,749	136,54
666,004	123,54
666,26	130,54
666,516	127,54
666,772	118,54
667,028	107,54
667,283	111,54
667,539	128,54
667,795	123,54
668,051	103,54
668,307	115,54
668,562	115,54
668,818	109,54
669,074	120,54
669,329	123,54
669,585	117,54
669,841	111,54
670,097	115,54
670,352	115,54
670,608	96,54
670,864	92,54
671,119	108,54
671,375	99,54
671,631	108,54
671,886	118,54
672,142	109,54
672,397	112,54
672,653	91,54
672,909	98,54
673,164	92,54
673,42	95,54
673,675	89,54
673,931	104,54
674,186	82,54
674,442	70,54
674,698	103,54
674,953	99,54
675,209	95,54
675,464	92,54
675,72	100,54
675,975	93,54
676,231	91,54
676,486	96,54
676,742	99,54
676,997	91,54
677,252	90,54
677,508	86,54
677,763	83,54
678,019	77,54
678,274	88,54
678,53	76,54
678,785	81,54
679,04	89,54
679,296	74,54
679,551	84,54
679,806	75,54
680,062	76,54
680,317	75,54
680,572	86,54
680,828	87,54
681,083	73,54
681,338	82,54
681,594	71,54
681,849	90,54
682,104	85,54
682,36	74,54
682,615	76,54
682,87	80,54
683,125	68,54
683,381	64,54
683,636	74,54
683,891	68,54
684,146	69,54
684,401	60,54
684,657	76,54
684,912	64,54
685,167	82,54
685,422	48,54
685,677	65,54
685,932	67,54
686,188	69,54
686,443	77,54
686,698	65,54
686,953	62,54
687,208	70,54
687,463	67,54
687,718	60,54
687,973	51,54
688,228	55,54
688,483	67,54
688,739	64,54
688,994	60,54
689,249	62,54
689,504	66,54
689,759	68,54
690,014	67,54
690,269	62,54
690,524	56,54
690,779	52,54
691,034	41,54
691,289	63,54
691,544	62,54
691,798	65,54
692,053	48,54
692,308	56,54
692,563	53,54
692,818	59,54
693,073	43,54
693,328	43,54
693,583	38,54
693,838	51,54
694,093	56,54
694,347	47,54
694,602	50,54
694,857	39,54
695,112	42,54
695,367	52,54
695,622	47,54
695,876	40,54
696,131	36,54
696,386	47,54
696,641	44,54
696,896	46,54
697,15	43,54
697,405	49,54
697,66	48,54
697,915	61,54
698,169	52,54
698,424	47,54
698,679	31,54
698,933	46,54
699,188	49,54
699,443	36,54
699,698	31,54
699,952	48,54
700,207	34,54
700,461	45,54
700,716	49,54
700,971	47,54
701,225	25,54
701,48	38,54
701,735	38,54
701,989	54,54
702,244	39,54
702,498	40,54
702,753	52,54
703,007	37,54
703,262	32,54
703,517	40,54
703,771	34,54
704,026	41,54
704,28	40,54
704,535	40,54
704,789	34,54
705,044	34,54
705,298	39,54
705,553	31,54
705,807	35,54
706,062	36,54
706,316	40,54
706,57	36,54
706,825	34,54
707,079	34,54
707,334	29,54
707,588	46,54
707,842	39,54
708,097	23,54
708,351	31,54
708,606	39,54
708,86	27,54
709,114	37,54
709,369	38,54
709,623	43,54
709,877	27,54
710,132	31,54
710,386	41,54
710,64	36,54
710,895	29,54
711,149	24,54
711,403	31,54
711,657	46,54
711,912	52,54
712,166	39,54
712,42	35,54
712,674	18,54
712,928	13,54
713,183	20,54
713,437	21,54
713,691	18,54
713,945	11,54
714,199	24,54
714,454	35,54
714,708	39,54
714,962	45,54
715,216	14,54
715,47	21,54
715,724	28,54
715,978	30,54
716,233	32,54
716,487	30,54
716,741	30,54
716,995	26,54
717,249	34,54
717,503	20,54
717,757	27,54
718,011	29,54
718,265	12,54
718,519	20,54
718,773	27,54
719,027	22,54
719,281	19,54
719,535	26,54
719,789	29,54
720,043	27,54
720,297	14,54
720,551	21,54
720,805	24,54
721,059	23,54
721,313	23,54
721,567	10,54
721,821	16,54
722,074	22,54
722,328	27,54
722,582	21,54
722,836	16,54
723,09	13,54
723,344	15,54
723,598	12,54
723,851	20,54
724,105	9,54
724,359	3,54
724,613	25,54
724,867	25,54
725,121	12,54
725,374	10,54
725,628	22,54
725,882	10,54
726,136	15,54
726,389	11,54
726,643	4,54
726,897	9,54
727,151	3,54
727,404	15,54
727,658	20,54
727,912	18,54
728,165	20,54
728,419	10,54
728,673	12,54
728,926	9,54
729,18	29,54
729,434	31,54
729,687	13,54
729,941	10,54
730,195	31,54
730,448	22,54
730,702	7,54
730,955	13,54
731,209	22,54
731,462	6,54
731,716	11,54
731,97	13,54
732,223	18,54
732,477	12,54
732,73	7,54
732,984	7,54
733,237	19,54
733,491	17,54
733,744	15,54
733,998	15,54
734,251	10,54
734,505	22,54
734,758	17,54
735,012	9,54
735,265	15,54
735,518	30,54
735,772	15,54
736,025	-1,46
736,279	5,54
736,532	-0,46
736,785	10,54
737,039	12,54
737,292	4,54
737,546	10,54
737,799	4,54
738,052	8,54
738,306	2,54
738,559	22,54
738,812	4,54
739,066	17,54
739,319	21,54
739,572	8,54
739,825	8,54
740,079	18,54
740,332	9,54
740,585	15,54
740,838	23,54
741,092	4,54
741,345	4,54
741,598	2,54
741,851	2,54
742,104	15,54
742,358	17,54
742,611	13,54
742,864	7,54
743,117	-3,46
743,37	5,54
743,623	15,54
743,877	5,54
744,13	-3,46
744,383	-0,46
744,636	12,54
744,889	-5,46
745,142	-1,46
745,395	-4,46
745,648	16,54
745,901	7,54
746,154	15,54
746,408	3,54
746,661	7,54
746,914	19,54
747,167	-1,46
747,42	11,54
747,673	3,54
747,926	10,54
748,179	8,54
748,432	19,54
748,685	22,54
748,938	10,54
749,19	6,54
749,443	12,54
749,696	4,54
749,949	10,54
750,202	14,54
750,455	-0,46
750,708	11,54
750,961	3,54
751,214	5,54
751,467	12,54
751,719	20,54
751,972	1,54
752,225	11,54
752,478	0,54
752,731	3,54
752,984	2,54
753,236	13,54
753,489	7,54
753,742	12,54
753,995	13,54
754,248	11,54
754,5	11,54
754,753	2,54
755,006	18,54
755,259	3,54
755,511	-1,46
755,764	11,54
756,017	2,54
756,269	6,54
756,522	2,54
756,775	-4,46
757,027	4,54
757,28	11,54
757,533	-0,46
757,785	0,54
758,038	-8,46
758,291	-3,46
758,543	23,54
758,796	4,54
759,049	10,54
759,301	-2,46
759,554	16,54
759,806	8,54
760,059	-6,46
760,311	7,54
760,564	-3,46
760,817	-10,46
761,069	9,54
761,322	6,54
761,574	5,54
761,827	0,54
762,079	-4,46
762,332	4,54
762,584	7,54
762,837	7,54
763,089	-11,46
763,341	-0,46
763,594	5,54
763,846	10,54
764,099	10,54
764,351	4,54
764,604	10,54
764,856	8,54
765,108	-1,46
765,361	0,54
765,613	-3,46
765,865	-6,46
766,118	1,54
766,37	-0,46
766,623	4,54
766,875	7,54
767,127	7,54
767,379	-3,46
767,632	3,54
767,884	0,54
768,136	-4,46
768,389	5,54
768,641	-9,46
768,893	3,54
769,145	4,54
769,398	6,54
769,65	-2,46
769,902	2,54
770,154	-1,46
770,406	-0,46
770,659	-2,46
770,911	-0,46
771,163	2,54
771,415	1,54
771,667	-4,46
771,919	12,54
772,172	1,54
772,424	7,54
772,676	6,54
772,928	6,54
773,18	4,54
773,432	-1,46
773,684	6,54
773,936	0,54
774,188	-1,46
774,44	-0,46
774,693	-2,46
774,945	-1,46
775,197	5,54
775,449	1,54
775,701	5,54
775,953	4,54
776,205	-2,46
776,457	-3,46
776,709	5,54
776,961	3,54
777,213	-9,46
777,464	10,54
777,716	7,54
777,968	2,54
778,22	16,54
778,472	9,54
778,724	4,54
778,976	10,54
779,228	0,54
779,48	0,54
779,732	-3,46
779,984	8,54
780,235	11,54
780,487	0,54
780,739	-3,46
780,991	6,54
781,243	4,54
781,494	7,54
781,746	11,54
781,998	8,54
782,25	-5,46
782,502	-9,46
782,753	-8,46
783,005	-1,46
783,257	-3,46
783,509	0,54
783,76	0,54
784,012	-12,46
784,264	1,54
784,515	-5,46
784,767	-1,46
785,019	3,54
785,271	-0,46
785,522	4,54
785,774	-3,46
786,026	-3,46
786,277	-18,46
786,529	9,54
786,78	7,54
787,032	8,54
787,284	4,54
787,535	5,54
787,787	-2,46
788,038	0,54
788,29	2,54
788,541	-2,46
788,793	6,54
789,045	2,54
789,296	3,54
789,548	-0,46
789,799	-7,46
790,051	3,54
790,302	2,54
790,554	-11,46
790,805	9,54
791,057	-2,46
791,308	-10,46
791,559	-17,46
791,811	-4,46
792,062	-1,46
792,314	3,54
792,565	-6,46
792,817	-11,46
793,068	-6,46
793,319	-1,46
793,571	-1,46
793,822	2,54
794,073	6,54
794,325	9,54
794,576	0,54
794,827	2,54
795,079	4,54
795,33	2,54
795,581	-5,46
795,833	-14,46
796,084	11,54
796,335	10,54
796,587	1,54
796,838	5,54
797,089	-0,46
797,34	-7,46
797,592	5,54
797,843	-0,46
798,094	-9,46
798,345	0,54
798,596	11,54
798,848	-8,46
799,099	-5,46
799,35	-5,46
799,601	14,54
799,852	4,54
800,103	10,54
800,355	4,54
800,606	6,54
800,857	5,54
801,108	10,54
801,359	5,54
801,61	-5,46
801,861	-2,46
802,112	-7,46
802,363	1,54
802,614	2,54
802,865	-15,46
803,116	0,54
803,367	-2,46
803,618	0,54
803,869	-6,46
804,12	-4,46
804,371	-9,46
804,622	-10,46
804,873	-5,46
805,124	4,54
805,375	0,54
805,626	6,54
805,877	-1,46
806,128	-5,46
806,379	-11,46
806,63	-11,46
806,881	-3,46
807,132	-2,46
807,383	0,54
807,634	-0,46
807,884	-1,46
808,135	3,54
808,386	10,54
808,637	6,54
808,888	-9,46
809,139	2,54
809,389	-2,46
809,64	-1,46
809,891	2,54
810,142	3,54
810,393	16,54
810,643	18,54
810,894	8,54
811,145	10,54
811,396	-9,46
811,646	-4,46
811,897	3,54
812,148	11,54
812,398	-6,46
812,649	-10,46
812,9	-0,46
813,151	-8,46
813,401	7,54
813,652	-3,46
813,902	2,54
814,153	4,54
814,404	6,54
814,654	15,54
814,905	7,54
815,156	-3,46
815,406	-5,46
815,657	-0,46
815,907	-0,46
816,158	6,54
816,408	5,54
816,659	-10,46
816,91	-0,46
817,16	9,54
817,411	-11,46
817,661	4,54
817,912	5,54
818,162	-0,46
818,413	7,54
818,663	-3,46
818,914	-9,46
819,164	-5,46
819,414	-4,46
819,665	-0,46
819,915	6,54
820,166	-10,46
820,416	-3,46
820,667	-9,46
820,917	0,54
821,167	-5,46
821,418	2,54
821,668	-7,46
821,918	-5,46
822,169	10,54
822,419	-0,46
822,67	2,54
822,92	-7,46
823,17	3,54
823,42	-0,46
823,671	1,54
823,921	-0,46
824,171	0,54
824,422	-5,46
824,672	2,54
824,922	-2,46
825,172	-8,46
825,423	-3,46
825,673	6,54
825,923	-21,46
826,173	-8,46
826,423	-10,46
826,674	14,54
826,924	0,54
827,174	-8,46
827,424	1,54
827,674	2,54
827,924	5,54
828,175	3,54
828,425	2,54
828,675	-0,46
828,925	-8,46
829,175	-10,46
829,425	-4,46
829,675	5,54
829,925	-11,46
830,175	-10,46
830,425	-4,46
830,675	5,54
830,925	-5,46
831,175	11,54
831,425	-1,46
831,676	-1,46
831,926	-8,46
832,175	-9,46
832,425	-10,46
832,675	2,54
832,925	-10,46
833,175	3,54
833,425	-1,46
833,675	-9,46
833,925	-3,46
834,175	6,54
834,425	-1,46
834,675	4,54
834,925	-6,46
835,175	8,54
835,425	-5,46
835,674	-3,46
835,924	-15,46
836,174	-2,46
836,424	2,54
836,674	-7,46
836,924	-11,46
837,173	0,54
837,423	7,54
837,673	-1,46
837,923	7,54
838,173	4,54
838,422	-0,46
838,672	5,54
838,922	6,54
839,172	-3,46
839,421	8,54
839,671	-4,46
839,921	-0,46
840,17	-9,46
840,42	-14,46
840,67	-13,46
840,919	-13,46
841,169	1,54
841,419	4,54
841,668	-7,46
841,918	3,54
842,168	-4,46
842,417	-12,46
842,667	-1,46
842,916	2,54
843,166	4,54
843,416	8,54
843,665	-0,46
843,915	-9,46
844,164	-0,46
844,414	3,54
844,663	-8,46
844,913	-0,46
845,162	-4,46
845,412	-4,46
845,662	2,54
845,911	-0,46
846,16	3,54
846,41	-2,46
846,659	0,54
846,909	0,54
847,158	-11,46
847,408	2,54
847,657	3,54
847,907	0,54
848,156	-13,46
848,405	-13,46
848,655	-11,46
848,904	-5,46
849,154	2,54
849,403	-9,46
849,652	3,54
849,902	-2,46
850,151	-4,46
850,4	0,54
850,65	-4,46
850,899	-12,46
851,148	4,54
851,398	-3,46
851,647	7,54
851,896	-9,46
852,145	-11,46
852,395	-15,46
852,644	-9,46
852,893	2,54
853,142	-13,46
853,392	-13,46
853,641	-1,46
853,89	-1,46
854,139	-0,46
854,388	-6,46
854,637	-8,46
854,887	2,54
855,136	13,54
855,385	-3,46
855,634	-1,46
855,883	3,54
856,132	-7,46
856,381	3,54
856,631	-7,46
856,88	3,54
857,129	-8,46
857,378	-2,46
857,627	7,54
857,876	-1,46
858,125	8,54
858,374	-0,46
858,623	-10,46
858,872	-3,46
859,121	-6,46
859,37	0,54
859,619	11,54
859,868	-8,46
860,117	-11,46
860,366	-3,46
860,615	0,54
860,864	-8,46
861,113	-10,46
861,362	-7,46
861,611	-11,46
861,86	3,54
862,108	-4,46
862,357	1,54
862,606	0,54
862,855	-13,46
863,104	-0,46
863,353	2,54
863,602	2,54
863,851	-0,46
864,099	-16,46
864,348	-9,46
864,597	-1,46
864,846	-5,46
865,095	-1,46
865,343	-0,46
865,592	-1,46
865,841	11,54
866,09	10,54
866,338	-2,46
866,587	-17,46
866,836	8,54
867,085	-3,46
867,333	-2,46
867,582	-6,46
867,831	-4,46
868,079	-0,46
868,328	-3,46
868,577	10,54
868,825	1,54
869,074	3,54
869,323	3,54
869,571	2,54
869,82	-3,46
870,068	-5,46
870,317	-7,46
870,566	1,54
870,814	-9,46
871,063	-3,46
871,311	9,54
871,56	4,54
871,808	-2,46
872,057	7,54
872,306	0,54
872,554	2,54
872,803	-1,46
873,051	-9,46
873,3	1,54
873,548	-8,46
873,797	-4,46
874,045	-2,46
874,293	3,54
874,542	-4,46
874,79	0,54
875,039	0,54
875,287	-15,46
875,536	-16,46
875,784	-2,46
876,032	-9,46
876,281	-8,46
876,529	-3,46
876,777	-17,46
877,026	-3,46
877,274	-10,46
877,523	-3,46
877,771	-0,46
878,019	-14,46
878,267	-2,46
878,516	-8,46
878,764	2,54
879,012	10,54
879,261	-7,46
879,509	-9,46
879,757	-3,46
880,005	-0,46
880,254	-9,46
880,502	2,54
880,75	-3,46
880,998	-6,46
881,246	-0,46
881,495	-2,46
881,743	0,54
881,991	-1,46
882,239	-8,46
882,487	-7,46
882,735	4,54
882,984	-6,46
883,232	-13,46
883,48	-5,46
883,728	-7,46
883,976	-4,46
884,224	-7,46
884,472	7,54
884,72	-13,46
884,968	-6,46
885,216	-9,46
885,464	-5,46
885,712	-7,46
885,96	3,54
886,208	1,54
886,457	-10,46
886,704	-6,46
886,952	-2,46
887,2	9,54
887,448	-5,46
887,696	-18,46
887,944	-6,46
888,192	-11,46
888,44	0,54
888,688	-9,46
888,936	-8,46
889,184	-13,46
889,432	-5,46
889,68	-4,46
889,928	-5,46
890,175	2,54
890,423	-1,46
890,671	-3,46
890,919	-8,46
891,167	-5,46
891,415	-1,46
891,663	13,54
891,91	-16,46
892,158	-6,46
892,406	-6,46
892,654	-4,46
892,901	-7,46
893,149	8,54
893,397	14,54
893,645	-1,46
893,892	-3,46
894,14	-0,46
894,388	-4,46
894,636	2,54
894,883	-4,46
895,131	-15,46
895,379	-12,46
895,626	0,54
895,874	0,54
896,122	-21,46
896,369	-5,46
896,617	-11,46
896,864	2,54
897,112	-4,46
897,36	-3,46
897,607	1,54
897,855	-2,46
898,102	-3,46
898,35	-1,46
898,598	-3,46
898,845	-7,46
899,093	-4,46
899,34	1,54
899,588	2,54
899,835	9,54
900,083	-2,46
900,33	-7,46
900,578	-7,46
900,825	-8,46
901,073	-8,46
901,32	-0,46
901,568	5,54
901,815	2,54
902,062	-13,46
902,31	-6,46
902,557	2,54
902,805	-1,46
903,052	-6,46
903,299	-16,46
903,547	-9,46
903,794	-10,46
904,042	-15,46
904,289	-10,46
904,536	-5,46
904,784	-4,46
905,031	10,54
905,278	-4,46
905,525	-15,46
905,773	-3,46
906,02	-15,46
906,267	-2,46
906,515	-0,46
906,762	-1,46
907,009	3,54
907,256	3,54
907,504	-1,46
907,751	-1,46
907,998	-15,46
908,245	-12,46
908,492	2,54
908,74	1,54
908,987	6,54
909,234	4,54
909,481	-1,46
909,728	0,54
909,975	-3,46
910,222	0,54
910,47	-1,46
910,717	0,54
910,964	-1,46
911,211	-1,46
911,458	-3,46
911,705	-6,46
911,952	-6,46
912,199	-8,46
912,446	-3,46
912,693	0,54
912,94	-17,46
913,187	4,54
913,434	4,54
913,681	2,54
913,928	-5,46
914,175	-10,46
914,422	-18,46
914,669	-4,46
914,916	2,54
915,163	-0,46
915,41	2,54
915,657	-3,46
915,904	-2,46
916,151	-10,46
916,398	-9,46
916,644	3,54
916,891	5,54
917,138	-7,46
917,385	6,54
917,632	1,54
917,879	6,54
918,126	3,54
918,372	2,54
918,619	2,54
918,866	-6,46
919,113	2,54
919,36	-4,46
919,606	-7,46
919,853	-1,46
920,1	4,54
920,347	0,54
920,593	-6,46
920,84	-4,46
921,087	-4,46
921,334	-5,46
921,58	11,54
921,827	-2,46
922,074	-5,46
922,32	-9,46
922,567	-9,46
922,814	-8,46
923,06	-5,46
923,307	-5,46
923,554	-4,46
923,8	-12,46
924,047	1,54
924,293	4,54
924,54	-0,46
924,787	3,54
925,033	12,54
925,28	5,54
925,526	-1,46
925,773	2,54
926,019	-10,46
926,266	9,54
926,512	-3,46
926,759	1,54
927,005	0,54
927,252	-5,46
927,498	-9,46
927,745	-10,46
927,991	-6,46
928,238	2,54
928,484	3,54
928,731	0,54
928,977	-4,46
929,223	-6,46
929,47	-9,46
929,716	3,54
929,963	5,54
930,209	-12,46
930,455	-3,46
930,702	-3,46
930,948	4,54
931,194	-0,46
931,441	-4,46
931,687	-7,46
931,933	-6,46
932,18	-19,46
932,426	-10,46
932,672	-8,46
932,919	-2,46
933,165	-10,46
933,411	-8,46
933,657	-15,46
933,904	-15,46
934,15	-6,46
934,396	-4,46
934,642	-9,46
934,889	-0,46
935,135	3,54
935,381	-17,46
935,627	-8,46
935,873	0,54
936,119	-3,46
936,366	-1,46
936,612	8,54
936,858	-6,46
937,104	4,54
937,35	-7,46
937,596	-15,46
937,842	-1,46
938,088	-5,46
938,334	-3,46
938,58	-10,46
938,827	-5,46
939,073	-4,46
939,319	3,54
939,565	-3,46
939,811	-1,46
940,057	-3,46
940,303	-6,46
940,549	-10,46
940,795	1,54
941,041	-8,46
941,287	-4,46
941,533	-11,46
941,778	6,54
942,024	0,54
942,27	-13,46
942,516	-9,46
942,762	-1,46
943,008	6,54
943,254	-6,46
943,5	-10,46
943,746	-3,46
943,992	-11,46
944,237	-4,46
944,483	-3,46
944,729	-11,46
944,975	-9,46
945,221	-7,46
945,467	0,54
945,712	3,54
945,958	-4,46
946,204	-1,46
946,45	-7,46
946,695	-7,46
946,941	-5,46
947,187	-3,46
947,433	-7,46
947,678	2,54
947,924	-1,46
948,17	-3,46
948,415	-4,46
948,661	0,54
948,907	-9,46
949,153	-5,46
949,398	-5,46
949,644	-5,46
949,889	1,54
950,135	-13,46
950,381	-2,46
950,626	-9,46
950,872	-6,46
951,118	-1,46
951,363	-9,46
951,609	4,54
951,854	-2,46
952,1	-9,46
952,345	-1,46
952,591	-0,46
952,836	-3,46
953,082	-14,46
953,327	-9,46
953,573	-0,46
953,818	8,54
954,064	0,54
954,309	-7,46
954,555	-3,46
954,8	0,54
955,046	-0,46
955,291	-7,46
955,537	-13,46
955,782	-4,46
956,027	-12,46
956,273	8,54
956,518	-4,46
956,764	-8,46
957,009	-4,46
957,254	2,54
957,5	0,54
957,745	-2,46
957,99	-1,46
958,236	-3,46
958,481	-15,46
958,726	-13,46
958,972	-5,46
959,217	-6,46
959,462	-16,46
959,707	-1,46
959,953	-7,46
960,198	-7,46
960,443	-9,46
960,688	-7,46
960,934	-11,46
961,179	-1,46
961,424	-7,46
961,669	-3,46
961,914	-13,46
962,16	1,54
962,405	-3,46
962,65	2,54
962,895	1,54
963,14	-0,46
963,385	-4,46
963,63	5,54
963,876	2,54
964,121	-13,46
964,366	-4,46
964,611	-5,46
964,856	-10,46
965,101	-6,46
965,346	-5,46
965,591	2,54
965,836	-4,46
966,081	-7,46
966,326	7,54
966,571	-1,46
966,816	13,54
967,061	-7,46
967,306	-8,46
967,551	-6,46
967,796	-5,46
968,041	0,54
968,286	-8,46
968,531	4,54
968,776	-5,46
969,021	5,54
969,266	3,54
969,511	3,54
969,755	1,54
970	-5,46
970,245	-7,46
970,49	-8,46
970,735	4,54
970,98	0,54
971,225	0,54
971,469	-5,46
971,714	-9,46
971,959	-7,46
972,204	-1,46
972,449	3,54
972,693	-14,46
972,938	-14,46
973,183	6,54
973,428	1,54
973,672	-8,46
973,917	-10,46
974,162	-6,46
974,407	-11,46
974,651	-9,46
974,896	5,54
975,141	-8,46
975,385	-5,46
975,63	-5,46
975,875	2,54
976,119	-1,46
976,364	-5,46
976,608	-8,46
976,853	-3,46
977,098	-7,46
977,342	7,54
977,587	-8,46
977,831	-9,46
978,076	-4,46
978,321	-4,46
978,565	13,54
978,81	3,54
979,054	6,54
979,299	12,54
979,543	-13,46
979,788	-4,46
980,032	8,54
980,277	-9,46
980,521	2,54
980,766	-7,46
981,01	-2,46
981,255	-20,46
981,499	-3,46
981,743	-0,46
981,988	-3,46
982,232	-9,46
982,477	2,54
982,721	-17,46
982,965	-2,46
983,21	-11,46
983,454	-6,46
983,699	5,54
983,943	-2,46
984,187	10,54
984,432	-4,46
984,676	-1,46
984,92	9,54
985,165	-5,46
985,409	-3,46
985,653	7,54
985,897	-5,46
986,142	-8,46
986,386	5,54
986,63	-1,46
986,874	-0,46
987,119	0,54
987,363	-0,46
987,607	-12,46
987,851	-2,46
988,095	8,54
988,34	0,54
988,584	4,54
988,828	-5,46
989,072	-15,46
989,316	-12,46
989,56	2,54
989,804	-4,46
990,049	11,54
990,293	18,54
990,537	5,54
990,781	-1,46
991,025	-2,46
991,269	-9,46
991,513	8,54
991,757	-8,46
992,001	-11,46
992,245	-9,46
992,489	-5,46
992,733	2,54
992,977	4,54
993,221	-4,46
993,465	-4,46
993,709	-5,46
993,953	-6,46
994,197	2,54
994,441	-5,46
994,685	-5,46
994,929	-6,46
995,173	-3,46
995,417	-11,46
995,661	-0,46
995,904	-3,46
996,148	4,54
996,392	1,54
996,636	-14,46
996,88	-13,46
997,124	-0,46
997,368	-3,46
997,611	-9,46
997,855	-2,46
998,099	-4,46
998,343	-6,46
998,587	0,54
998,83	-1,46
999,074	-8,46
999,318	-12,46
999,562	-12,46
999,805	-1,46
1000,049	-0,46
1000,293	-21,46
1000,537	-1,46
1000,78	-15,46
1001,024	-8,46
1001,268	5,54
1001,511	-1,46
1001,755	-8,46
1001,999	-9,46
1002,242	-12,46
1002,486	0,54
1002,73	-9,46
1002,973	6,54
1003,217	-0,46
1003,46	-9,46
1003,704	-6,46
1003,948	-12,46
1004,191	-8,46
1004,435	-7,46
1004,678	-0,46
1004,922	-8,46
1005,165	1,54
1005,409	3,54
1005,652	2,54
1005,896	-10,46
1006,139	-5,46
1006,383	-9,46
1006,626	-1,46
1006,87	1,54
1007,113	-0,46
1007,357	-1,46
1007,6	-9,46
1007,844	-8,46
1008,087	-0,46
1008,33	-4,46
1008,574	4,54
1008,817	-9,46
1009,061	-5,46
1009,304	1,54
1009,547	15,54
1009,791	-2,46
1010,034	-1,46
1010,277	-5,46
1010,521	-5,46
1010,764	-9,46
1011,007	-11,46
1011,251	-8,46
1011,494	-9,46
1011,737	-7,46
1011,98	2,54
1012,224	-2,46
1012,467	2,54
1012,71	-7,46
1012,953	0,54
1013,197	-14,46
1013,44	-2,46
1013,683	-4,46
1013,926	2,54
1014,169	2,54
1014,413	-14,46
1014,656	-0,46
1014,899	-3,46
1015,142	0,54
1015,385	-5,46
1015,628	2,54
1015,871	-4,46
1016,115	-12,46
1016,358	-11,46
1016,601	-10,46
1016,844	-6,46
1017,087	-1,46
1017,33	-0,46
1017,573	0,54
1017,816	-9,46
1018,059	-14,46
1018,302	3,54
1018,545	-3,46
1018,788	21,54
1019,031	14,54
1019,274	-0,46
1019,517	3,54
1019,76	2,54
1020,003	-10,46
1020,246	-15,46
1020,489	-8,46
1020,732	-5,46
1020,975	-11,46
1021,218	-7,46
1021,461	-4,46
1021,703	-4,46
1021,946	-4,46
1022,189	-1,46
1022,432	11,54
1022,675	-2,46
1022,918	3,54
1023,161	3,54
1023,403	-10,46
1023,646	-3,46
1023,889	4,54
1024,132	-8,46
1024,375	2,54
1024,617	0,54
1024,86	0,54
1025,103	-1,46
1025,346	-12,46
1025,588	-10,46
1025,831	10,54
1026,074	-1,46
1026,317	2,54
1026,559	-3,46
1026,802	6,54
1027,045	0,54
1027,287	-0,46
1027,53	-0,46
1027,773	-0,46
1028,015	-1,46
1028,258	6,54
1028,501	-3,46
1028,743	-1,46
1028,986	3,54
1029,228	-0,46
1029,471	1,54
1029,714	0,54
1029,956	10,54
1030,199	-0,46
1030,441	-7,46
1030,684	-8,46
1030,926	11,54
1031,169	-2,46
1031,411	-8,46
1031,654	-13,46
1031,896	-14,46
1032,139	-15,46
1032,381	-6,46
1032,624	10,54
1032,866	-12,46
1033,109	0,54
1033,351	2,54
1033,594	-11,46
1033,836	1,54
1034,079	-4,46
1034,321	-11,46
1034,563	8,54
1034,806	-8,46
1035,048	7,54
1035,29	-4,46
1035,533	7,54
1035,775	-8,46
1036,018	-13,46
1036,26	5,54
1036,502	-2,46
1036,744	-0,46
1036,987	-7,46
1037,229	-1,46
1037,471	-8,46
1037,714	-6,46
1037,956	-4,46
1038,198	-16,46
1038,44	6,54
1038,683	-7,46
1038,925	-8,46
1039,167	-3,46
1039,409	-0,46
1039,651	-2,46
1039,894	-3,46
1040,136	2,54
1040,378	-12,46
1040,62	-4,46
1040,862	-2,46
1041,104	-2,46
1041,347	-7,46
1041,589	-4,46
1041,831	-5,46
1042,073	-9,46
1042,315	-8,46
1042,557	-3,46
1042,799	-3,46
1043,041	-3,46
1043,283	-0,46
1043,525	-9,46
1043,767	-4,46
1044,009	-7,46
1044,251	-1,46
1044,493	-7,46
1044,735	-1,46
1044,977	-19,46
1045,219	-10,46
1045,461	-1,46
1045,703	0,54
1045,945	-10,46
1046,187	-5,46
1046,429	5,54
1046,671	5,54
1046,913	-15,46
1047,155	7,54
1047,397	-6,46
1047,639	3,54
1047,881	-10,46
1048,122	2,54
1048,364	-13,46
1048,606	-3,46
1048,848	7,54
1049,09	-10,46
1049,332	-7,46
1049,573	-9,46
1049,815	-10,46
1050,057	-5,46
1050,299	-12,46
1050,541	-7,46
1050,782	-8,46
1051,024	2,54
1051,266	-6,46
1051,508	0,54
1051,749	-11,46
1051,991	-10,46
1052,233	-3,46
1052,474	-9,46
1052,716	-3,46
1052,958	-9,46
1053,199	-9,46
1053,441	-10,46
1053,683	0,54
1053,924	-16,46
1054,166	-2,46
1054,408	-13,46
1054,649	-10,46
1054,891	-7,46
1055,132	-15,46
1055,374	8,54
1055,616	-4,46
1055,857	-3,46
1056,099	-2,46
1056,34	-3,46
1056,582	-13,46
1056,823	-6,46
1057,065	-12,46
1057,306	2,54
1057,548	-8,46
1057,789	-4,46
1058,031	10,54
1058,272	-2,46
1058,514	4,54
1058,755	2,54
1058,997	-7,46
1059,238	-12,46
1059,479	-7,46
1059,721	-4,46
1059,962	3,54
1060,204	-6,46
1060,445	-5,46
1060,686	-2,46
1060,928	-8,46
1061,169	-7,46
1061,41	-6,46
1061,652	-3,46
1061,893	-5,46
1062,134	6,54
1062,376	-0,46
1062,617	-11,46
1062,858	-4,46
1063,1	-3,46
1063,341	-3,46
1063,582	1,54
1063,823	-2,46
1064,065	-0,46
1064,306	-5,46
1064,547	-15,46
1064,788	-14,46
1065,029	-5,46
1065,271	-16,46
1065,512	-0,46
1065,753	2,54
1065,994	-2,46
1066,235	-7,46
1066,476	-1,46
1066,718	-8,46
1066,959	6,54
1067,2	-0,46
1067,441	7,54
1067,682	3,54
1067,923	-25,46
1068,164	-16,46
1068,405	-13,46
1068,646	-8,46
1068,887	3,54
1069,128	-5,46
1069,369	-11,46
1069,61	-7,46
1069,851	8,54
1070,092	7,54
1070,333	-15,46
1070,574	6,54
1070,815	-20,46
1071,056	-7,46
1071,297	-12,46
1071,538	-3,46
1071,779	-11,46
1072,02	-5,46
1072,261	-8,46
1072,502	4,54
1072,743	0,54
1072,984	10,54
1073,225	-8,46
1073,466	-8,46
1073,706	-8,46
1073,947	4,54
1074,188	-7,46
1074,429	-6,46
1074,67	-5,46
1074,911	-13,46
1075,151	-2,46
1075,392	-2,46
1075,633	4,54
1075,874	-1,46
1076,114	-0,46
1076,355	-15,46
1076,596	-6,46
1076,837	-9,46
1077,077	-5,46
1077,318	-5,46
1077,559	-4,46
1077,8	-3,46
1078,04	-1,46
1078,281	3,54
1078,522	0,54
1078,762	-6,46
1079,003	-12,46
1079,244	1,54
1079,484	-4,46
1079,725	-9,46
1079,965	-11,46
1080,206	1,54
1080,447	-6,46
1080,687	2,54
1080,928	-0,46
1081,168	-9,46
1081,409	-6,46
1081,649	-4,46
1081,89	-3,46
1082,131	9,54
1082,371	0,54
1082,612	-2,46
1082,852	5,54
1083,093	5,54
1083,333	-9,46
1083,573	-18,46
1083,814	-12,46
1084,054	-2,46
1084,295	-7,46
1084,535	8,54
1084,776	-5,46
1085,016	-11,46
1085,257	-8,46
1085,497	2,54
1085,737	-3,46
1085,978	-3,46
1086,218	-6,46
1086,458	-3,46
1086,699	-1,46
1086,939	-9,46
1087,179	-4,46
1087,42	-0,46
1087,66	4,54
1087,9	5,54
1088,141	-1,46
1088,381	-4,46
1088,621	-0,46
1088,861	-0,46
1089,102	0,54
1089,342	-11,46
1089,582	-1,46
1089,822	-8,46
1090,063	-2,46
1090,303	-3,46
1090,543	-8,46
1090,783	4,54
1091,023	2,54
1091,263	-0,46
1091,504	14,54
1091,744	4,54
1091,984	0,54
1092,224	-5,46
1092,464	-5,46
1092,704	-10,46
1092,944	6,54
1093,184	-16,46
1093,425	-6,46
1093,665	-1,46
1093,905	-19,46
1094,145	-4,46
1094,385	-0,46
1094,625	-3,46
1094,865	3,54
1095,105	5,54
1095,345	-6,46
1095,585	-10,46
1095,825	-10,46
1096,065	-12,46
1096,305	-6,46
1096,545	-0,46
1096,785	-6,46
1097,025	-2,46
1097,265	-2,46
1097,504	-3,46
1097,744	-1,46
1097,984	1,54
1098,224	7,54
1098,464	-0,46
1098,704	6,54
1098,944	-5,46
1099,184	-0,46
1099,423	-4,46
1099,663	-1,46
1099,903	1,54
1100,143	-13,46
1100,383	-14,46
1100,622	-13,46
1100,862	0,54
1101,102	-3,46
1101,342	-8,46
1101,582	10,54
1101,821	0,54
1102,061	-0,46
1102,301	4,54
1102,54	-1,46
1102,78	-11,46
1103,02	3,54
1103,26	-11,46
1103,499	-5,46
1103,739	3,54
1103,979	6,54
1104,218	-6,46
1104,458	2,54
1104,697	-1,46
1104,937	-12,46
1105,177	-0,46
1105,416	5,54
1105,656	-5,46
1105,896	-11,46
1106,135	-9,46
1106,375	6,54
1106,614	5,54
1106,854	-0,46
1107,093	-3,46
1107,333	-5,46
1107,572	-6,46
1107,812	-1,46
1108,051	8,54
1108,291	-5,46
1108,53	6,54
1108,77	-7,46
1109,009	-9,46
1109,249	-0,46
1109,488	7,54
1109,728	-3,46
1109,967	-11,46
1110,206	0,54
1110,446	-4,46
1110,685	-5,46
1110,925	9,54
1111,164	2,54
1111,403	8,54
1111,643	-10,46
1111,882	-9,46
1112,121	-9,46
1112,361	-6,46
1112,6	5,54
1112,839	6,54
1113,079	3,54
1113,318	3,54
1113,557	-5,46
1113,796	8,54
1114,036	7,54
1114,275	-0,46
1114,514	0,54
1114,753	-4,46
1114,993	-9,46
1115,232	-18,46
1115,471	-4,46
1115,71	0,54
1115,949	-5,46
1116,188	-8,46
1116,428	3,54
1116,667	-1,46
1116,906	-14,46
1117,145	-8,46
1117,384	-6,46
1117,623	-6,46
1117,862	-8,46
1118,101	-6,46
1118,341	3,54
1118,58	-7,46
1118,819	0,54
1119,058	-1,46
1119,297	-7,46
1119,536	-4,46
1119,775	-2,46
1120,014	-4,46
1120,253	-12,46
1120,492	-19,46
1120,731	4,54
1120,97	-8,46
1121,209	-9,46
1121,448	9,54
1121,687	-9,46
1121,926	-9,46
1122,165	-9,46
1122,404	3,54
1122,642	2,54
1122,881	9,54
1123,12	8,54
1123,359	0,54
1123,598	-8,46
1123,837	10,54
1124,076	-8,46
1124,315	-2,46
1124,553	0,54
1124,792	3,54
1125,031	6,54
1125,27	-5,46
1125,509	2,54
1125,747	6,54
1125,986	0,54
1126,225	-5,46
